Frecuencia (Hz)	Nivel (dB)
46,875000	-72,061180
93,750000	-63,550278
140,625000	-64,936562
187,500000	-63,528030
234,375000	-61,850498
281,250000	-72,452675
328,125000	-78,686325
375,000000	-82,018158
421,875000	-84,047005
468,750000	-85,600861
515,625000	-86,564705
562,500000	-87,781563
609,375000	-88,602882
656,250000	-89,200790
703,125000	-89,986984
750,000000	-90,709877
796,875000	-91,285500
843,750000	-91,658867
890,625000	-92,391357
937,500000	-92,812866
984,375000	-93,016518
1031,250000	-93,646713
1078,125000	-93,905121
1125,000000	-94,384865
1171,875000	-94,737656
1218,750000	-94,947044
1265,625000	-95,222870
1312,500000	-95,324966
1359,375000	-95,799217
1406,250000	-95,949821
1453,125000	-96,646858
1500,000000	-96,741814
1546,875000	-96,863525
1593,750000	-97,187340
1640,625000	-97,477615
1687,500000	-97,516205
1734,375000	-97,926888
1781,250000	-97,871155
1828,125000	-98,054878
1875,000000	-98,470375
1921,875000	-98,438553
1968,750000	-98,888634
2015,625000	-98,905884
2062,500000	-98,797783
2109,375000	-99,131767
2156,250000	-99,264214
2203,125000	-99,247589
2250,000000	-99,364799
2296,875000	-99,512611
2343,750000	-97,869598
2390,625000	-97,854202
2437,500000	-99,148361
2484,375000	-99,808479
2531,250000	-100,549271
2578,125000	-100,870628
2625,000000	-101,062149
2671,875000	-101,008492
2718,750000	-101,113663
2765,625000	-101,343018
2812,500000	-101,407753
2859,375000	-101,656311
2906,250000	-101,631180
2953,125000	-101,663330
3000,000000	-102,109383
3046,875000	-101,877274
3093,750000	-101,845612
3140,625000	-102,240860
3187,500000	-102,332451
3234,375000	-102,505676
3281,250000	-102,705513
3328,125000	-102,537270
3375,000000	-102,921356
3421,875000	-102,940109
3468,750000	-102,822525
3515,625000	-103,095375
3562,500000	-103,226883
3609,375000	-103,006424
3656,250000	-102,927193
3703,125000	-103,482468
3750,000000	-103,417412
3796,875000	-103,475899
3843,750000	-103,259636
3890,625000	-103,458450
3937,500000	-103,852928
3984,375000	-103,787628
4031,250000	-104,048141
4078,125000	-103,891792
4125,000000	-104,447655
4171,875000	-104,219185
4218,750000	-104,103935
4265,625000	-104,221634
4312,500000	-104,332664
4359,375000	-104,286392
4406,250000	-104,412399
4453,125000	-104,414146
4500,000000	-104,418121
4546,875000	-104,351349
4593,750000	-104,625160
4640,625000	-104,605003
4687,500000	-104,823219
4734,375000	-104,714722
4781,250000	-104,507820
4828,125000	-104,881470
4875,000000	-104,737625
4921,875000	-104,926003
4968,750000	-104,933632
5015,625000	-104,503151
5062,500000	-104,996460
5109,375000	-104,902405
5156,250000	-105,387802
5203,125000	-105,195198
5250,000000	-105,167618
5296,875000	-105,466965
5343,750000	-105,406754
5390,625000	-105,439659
5437,500000	-105,330200
5484,375000	-105,578697
5531,250000	-105,473122
5578,125000	-105,409889
5625,000000	-105,875175
5671,875000	-105,474930
5718,750000	-105,547989
5765,625000	-105,618935
5812,500000	-105,858444
5859,375000	-105,522682
5906,250000	-105,615974
5953,125000	-105,830536
6000,000000	-105,679207
6046,875000	-105,751678
6093,750000	-105,679985
6140,625000	-105,868294
6187,500000	-106,226585
6234,375000	-106,023003
6281,250000	-106,129913
6328,125000	-106,015587
6375,000000	-106,016258
6421,875000	-106,474457
6468,750000	-105,999062
6515,625000	-106,110603
6562,500000	-106,525208
6609,375000	-106,199371
6656,250000	-106,117615
6703,125000	-106,234070
6750,000000	-106,485634
6796,875000	-106,134521
6843,750000	-106,341370
6890,625000	-106,740974
6937,500000	-106,516777
6984,375000	-106,691017
7031,250000	-106,559189
7078,125000	-106,580132
7125,000000	-106,862579
7171,875000	-106,810204
7218,750000	-106,730392
7265,625000	-106,777962
7312,500000	-106,679581
7359,375000	-106,627182
7406,250000	-106,878181
7453,125000	-106,903061
7500,000000	-106,663177
7546,875000	-106,899651
7593,750000	-106,977898
7640,625000	-106,921768
7687,500000	-106,990417
7734,375000	-107,445122
7781,250000	-106,527565
7828,125000	-106,906151
7875,000000	-106,587730
7921,875000	-106,822983
7968,750000	-107,110886
8015,625000	-107,307121
8062,500000	-107,138245
8109,375000	-106,925980
8156,250000	-107,416443
8203,125000	-107,295235
8250,000000	-107,378166
8296,875000	-107,370293
8343,750000	-107,116882
8390,625000	-106,847549
8437,500000	-107,248611
8484,375000	-107,066818
8531,250000	-107,517609
8578,125000	-107,636650
8625,000000	-107,373184
8671,875000	-107,200874
8718,750000	-107,179276
8765,625000	-107,316505
8812,500000	-107,607384
8859,375000	-107,322716
8906,250000	-107,461166
8953,125000	-107,311241
9000,000000	-107,147232
9046,875000	-107,957695
9093,750000	-107,075394
9140,625000	-107,391525
9187,500000	-107,293854
9234,375000	-107,223244
9281,250000	-107,418793
9328,125000	-107,512917
9375,000000	-107,751244
9421,875000	-107,731438
9468,750000	-107,681900
9515,625000	-107,860992
9562,500000	-107,394234
9609,375000	-107,311737
9656,250000	-107,884544
9703,125000	-107,528160
9750,000000	-107,877174
9796,875000	-107,689766
9843,750000	-107,350441
9890,625000	-107,915909
9937,500000	-107,912216
9984,375000	-107,656227
10031,250000	-107,848923
10078,125000	-108,113197
10125,000000	-107,973694
10171,875000	-107,952385
10218,750000	-107,737778
10265,625000	-107,944382
10312,500000	-107,588287
10359,375000	-107,849403
10406,250000	-108,032227
10453,125000	-108,020424
10500,000000	-107,856354
10546,875000	-107,849747
10593,750000	-107,656723
10640,625000	-107,923401
10687,500000	-107,677010
10734,375000	-107,372215
10781,250000	-107,536903
10828,125000	-107,861168
10875,000000	-107,693588
10921,875000	-108,148628
10968,750000	-107,796791
11015,625000	-108,062553
11062,500000	-107,850060
11109,375000	-107,950897
11156,250000	-108,140862
11203,125000	-108,054832
11250,000000	-107,997391
11296,875000	-108,054581
11343,750000	-108,355934
11390,625000	-107,882141
11437,500000	-108,378036
11484,375000	-108,080963
11531,250000	-108,178253
11578,125000	-107,926918
11625,000000	-107,832649
11671,875000	-107,719749
11718,750000	-108,067818
11765,625000	-107,980019
11812,500000	-108,086731
11859,375000	-108,264290
11906,250000	-108,258240
11953,125000	-108,226357
12000,000000	-108,150574
12046,875000	-108,184418
12093,750000	-108,317879
12140,625000	-108,216057
12187,500000	-108,293518
12234,375000	-108,413826
12281,250000	-108,200951
12328,125000	-108,380669
12375,000000	-108,110703
12421,875000	-108,438950
12468,750000	-107,781960
12515,625000	-108,180946
12562,500000	-108,579460
12609,375000	-108,144585
12656,250000	-108,549866
12703,125000	-108,219513
12750,000000	-108,757248
12796,875000	-108,371071
12843,750000	-108,118721
12890,625000	-108,526932
12937,500000	-108,437538
12984,375000	-108,467049
13031,250000	-108,437439
13078,125000	-108,453384
13125,000000	-108,361214
13171,875000	-108,566711
13218,750000	-108,405067
13265,625000	-108,413010
13312,500000	-108,423882
13359,375000	-108,763916
13406,250000	-108,618660
13453,125000	-108,571091
13500,000000	-108,397095
13546,875000	-109,027206
13593,750000	-108,471863
13640,625000	-108,401634
13687,500000	-108,365921
13734,375000	-108,604500
13781,250000	-107,936951
13828,125000	-108,325302
13875,000000	-108,888344
13921,875000	-108,766258
13968,750000	-108,789673
14015,625000	-108,814735
14062,500000	-108,571556
14109,375000	-108,392700
14156,250000	-108,622406
14203,125000	-108,452507
14250,000000	-108,511703
14296,875000	-108,659431
14343,750000	-108,966293
14390,625000	-108,946175
14437,500000	-108,334381
14484,375000	-108,575760
14531,250000	-109,028328
14578,125000	-108,678818
14625,000000	-108,526894
14671,875000	-108,739578
14718,750000	-108,578079
14765,625000	-108,432220
14812,500000	-108,458389
14859,375000	-108,850784
14906,250000	-108,714622
14953,125000	-108,799957
15000,000000	-108,680008
15046,875000	-108,664589
15093,750000	-108,821930
15140,625000	-108,715973
15187,500000	-108,827621
15234,375000	-108,786232
15281,250000	-108,778282
15328,125000	-108,724785
15375,000000	-108,476570
15421,875000	-108,875153
15468,750000	-108,488197
15515,625000	-108,767082
15562,500000	-108,807991
15609,375000	-108,529984
15656,250000	-108,789825
15703,125000	-108,681442
15750,000000	-108,635498
15796,875000	-108,863716
15843,750000	-108,753883
15890,625000	-108,547348
15937,500000	-108,790352
15984,375000	-108,570045
16031,250000	-108,870262
16078,125000	-109,326530
16125,000000	-113,521721
16171,875000	-115,113625
16218,750000	-115,410568
16265,625000	-115,607841
16312,500000	-115,651993
16359,375000	-115,741684
16406,250000	-115,634308
16453,125000	-115,626076
16500,000000	-115,485115
16546,875000	-115,522255
16593,750000	-115,805496
16640,625000	-115,771919
16687,500000	-115,688889
16734,375000	-115,845863
16781,250000	-115,974739
16828,125000	-115,772919
16875,000000	-115,898643
16921,875000	-116,017059
16968,750000	-115,890877
17015,625000	-115,922462
17062,500000	-115,999138
17109,375000	-115,864960
17156,250000	-115,938385
17203,125000	-116,170235
17250,000000	-116,186432
17296,875000	-115,973846
17343,750000	-115,968330
17390,625000	-116,081192
17437,500000	-115,968590
17484,375000	-115,824348
17531,250000	-115,958481
17578,125000	-115,936325
17625,000000	-115,901253
17671,875000	-116,068230
17718,750000	-116,111511
17765,625000	-115,973961
17812,500000	-116,169540
17859,375000	-116,124504
17906,250000	-116,072136
17953,125000	-115,983749
18000,000000	-116,095070
18046,875000	-116,170341
18093,750000	-115,980858
18140,625000	-116,094513
18187,500000	-116,244179
18234,375000	-115,984863
18281,250000	-116,083115
18328,125000	-116,213684
18375,000000	-116,201401
18421,875000	-116,125900
18468,750000	-116,058815
18515,625000	-116,143631
18562,500000	-116,255699
18609,375000	-116,197311
18656,250000	-116,295807
18703,125000	-116,303879
18750,000000	-115,992874
18796,875000	-116,287880
18843,750000	-116,330177
18890,625000	-116,146637
18937,500000	-116,423843
18984,375000	-116,290474
19031,250000	-116,145866
19078,125000	-116,229431
19125,000000	-116,191170
19171,875000	-116,245644
19218,750000	-116,328377
19265,625000	-116,281212
19312,500000	-116,192825
19359,375000	-116,320610
19406,250000	-116,383011
19453,125000	-116,284203
19500,000000	-116,385544
19546,875000	-116,422310
19593,750000	-116,398506
19640,625000	-116,311081
19687,500000	-116,221039
19734,375000	-116,345428
19781,250000	-116,243629
19828,125000	-116,219681
19875,000000	-116,263527
19921,875000	-116,393890
19968,750000	-116,471992
20015,625000	-116,332443
20062,500000	-116,363823
20109,375000	-116,410843
20156,250000	-116,446426
20203,125000	-116,483383
20250,000000	-116,458778
20296,875000	-116,294556
20343,750000	-116,377632
20390,625000	-116,390808
20437,500000	-116,537788
20484,375000	-116,544228
20531,250000	-116,470589
20578,125000	-116,450089
20625,000000	-116,524811
20671,875000	-116,563599
20718,750000	-116,759476
20765,625000	-116,380707
20812,500000	-116,424316
20859,375000	-116,391434
20906,250000	-116,519142
20953,125000	-116,526375
21000,000000	-116,512230
21046,875000	-116,311478
21093,750000	-116,537453
21140,625000	-116,587761
21187,500000	-116,627228
21234,375000	-116,395309
21281,250000	-116,534492
21328,125000	-116,584198
21375,000000	-116,807465
21421,875000	-116,432823
21468,750000	-116,742554
21515,625000	-116,409828
21562,500000	-116,505440
21609,375000	-116,553230
21656,250000	-116,515015
21703,125000	-116,646446
21750,000000	-116,631760
21796,875000	-116,671265
21843,750000	-116,676109
21890,625000	-116,536934
21937,500000	-116,518044
21984,375000	-116,658348
22031,250000	-116,545280
22078,125000	-116,573036
22125,000000	-116,652748
22171,875000	-116,476151
22218,750000	-116,776505
22265,625000	-116,517311
22312,500000	-116,667038
22359,375000	-116,514435
22406,250000	-116,423958
22453,125000	-116,898773
22500,000000	-116,651581
22546,875000	-116,489418
22593,750000	-116,498367
22640,625000	-116,567719
22687,500000	-116,599121
22734,375000	-116,338058
22781,250000	-116,467712
22828,125000	-116,615234
22875,000000	-116,821701
22921,875000	-116,647194
22968,750000	-116,623474
23015,625000	-116,731934
23062,500000	-116,772224
23109,375000	-116,686028
23156,250000	-116,730637
23203,125000	-116,498650
23250,000000	-116,466019
23296,875000	-116,502106
23343,750000	-116,514732
23390,625000	-116,454361
23437,500000	-116,479111
23484,375000	-116,562759
23531,250000	-116,669456
23578,125000	-116,634903
23625,000000	-116,727463
23671,875000	-116,520676
23718,750000	-116,754967
23765,625000	-116,601418
23812,500000	-116,616455
23859,375000	-116,547699
23906,250000	-116,631073
23953,125000	-116,680191
