Frecuencia (Hz)	Nivel (dB)
7,812500	-107,045341
15,625000	-107,356789
23,437500	-108,338165
31,250000	-106,470085
39,062500	-99,693130
46,875000	-95,743843
54,687500	-96,181465
62,500000	-101,290504
70,312500	-101,688293
78,125000	-99,209305
85,937500	-95,466827
93,750000	-95,506599
101,562500	-94,457230
109,375000	-95,043991
117,187500	-97,695961
125,000000	-100,647575
132,812500	-103,212181
140,625000	-106,112465
148,437500	-107,487663
156,250000	-107,683990
164,062500	-109,526062
171,875000	-105,908028
179,687500	-99,902084
187,500000	-99,554703
195,312500	-101,643944
203,125000	-103,534523
210,937500	-106,649734
218,750000	-109,336029
226,562500	-112,173653
234,375000	-106,761765
242,187500	-98,367378
250,000000	-99,430725
257,812500	-109,388077
265,625000	-114,511688
273,437500	-112,222755
281,250000	-110,096916
289,062500	-110,628975
296,875000	-102,487717
304,687500	-94,005074
312,500000	-95,153320
320,312500	-106,098549
328,125000	-111,379875
335,937500	-106,837837
343,750000	-105,328247
351,562500	-106,340996
359,375000	-96,394638
367,187500	-87,966919
375,000000	-89,162102
382,812500	-100,897224
390,625000	-105,600288
398,437500	-98,339546
406,250000	-98,221138
414,062500	-100,539177
421,875000	-85,982239
429,687500	-77,169823
437,500000	-78,245644
445,312500	-89,689568
453,125000	-91,841423
460,937500	-84,663651
468,750000	-82,899048
476,562500	-81,837662
484,375000	-76,654694
492,187500	-70,584641
500,000000	-70,016739
507,812500	-67,680733
515,625000	-64,154892
523,437500	-59,382698
531,250000	-56,845871
539,062500	-52,767239
546,875000	-41,902966
554,687500	-38,259026
562,500000	-43,122543
570,312500	-57,706905
578,125000	-69,737511
585,937500	-71,953461
593,750000	-72,846588
601,562500	-72,082550
609,375000	-69,734665
617,187500	-65,152573
625,000000	-64,845367
632,812500	-60,262836
640,625000	-43,060558
648,437500	-32,947056
656,250000	-33,656471
664,062500	-43,868244
671,875000	-56,687988
679,687500	-58,013573
687,500000	-45,584419
695,312500	-34,590332
703,125000	-33,741085
710,937500	-38,883266
718,750000	-51,702850
726,562500	-65,976471
734,375000	-68,919548
742,187500	-70,006500
750,000000	-68,747826
757,812500	-66,246071
765,625000	-60,552776
773,437500	-45,990055
781,250000	-37,805031
789,062500	-37,424973
796,875000	-46,704628
804,687500	-65,209442
812,500000	-72,330421
820,312500	-77,183723
828,125000	-78,683617
835,937500	-71,711304
843,750000	-68,145897
851,562500	-74,645157
859,375000	-86,544670
867,187500	-85,688591
875,000000	-84,600548
882,812500	-85,355644
890,625000	-88,941475
898,437500	-87,910797
906,250000	-84,984917
914,062500	-86,901062
921,875000	-89,355103
929,687500	-91,915375
937,500000	-95,143578
945,312500	-95,567299
953,125000	-97,399010
960,937500	-95,551712
968,750000	-92,887794
976,562500	-92,716324
984,375000	-95,172768
992,187500	-96,882759
1000,000000	-97,504288
1007,812500	-96,971336
1015,625000	-96,980881
1023,437500	-97,692528
1031,250000	-96,048004
1039,062500	-97,331734
1046,875000	-100,854546
1054,687500	-99,893951
1062,500000	-98,414101
1070,312500	-97,676292
1078,125000	-95,345177
1085,937500	-93,272514
1093,750000	-87,856583
1101,562500	-84,251823
1109,375000	-84,703148
1117,187500	-83,806885
1125,000000	-86,216560
1132,812500	-96,617722
1140,625000	-104,318161
1148,437500	-105,020805
1156,250000	-103,962196
1164,062500	-104,929672
1171,875000	-108,544624
1179,687500	-105,064362
1187,500000	-106,890480
1195,312500	-110,745056
1203,125000	-110,513657
1210,937500	-109,660057
1218,750000	-107,764549
1226,562500	-107,908356
1234,375000	-108,801643
1242,187500	-107,886353
1250,000000	-107,861176
1257,812500	-107,960228
1265,625000	-105,118492
1273,437500	-101,075516
1281,250000	-100,174133
1289,062500	-95,191216
1296,875000	-87,204857
1304,687500	-86,648598
1312,500000	-92,828789
1320,312500	-97,036713
1328,125000	-100,986496
1335,937500	-104,041351
1343,750000	-107,286598
1351,562500	-108,095123
1359,375000	-107,641830
1367,187500	-105,756966
1375,000000	-103,162880
1382,812500	-100,979202
1390,625000	-89,668388
1398,437500	-84,554611
1406,250000	-85,555504
1414,062500	-85,492729
1421,875000	-89,545448
1429,687500	-98,074158
1437,500000	-102,339973
1445,312500	-107,199631
1453,125000	-108,330864
1460,937500	-108,767540
1468,750000	-110,967735
1476,562500	-109,561172
1484,375000	-108,362602
1492,187500	-108,958641
1500,000000	-108,199577
1507,812500	-105,315193
1515,625000	-106,144882
1523,437500	-108,433655
1531,250000	-107,962242
1539,062500	-105,192146
1546,875000	-100,813477
1554,687500	-98,669479
1562,500000	-95,662003
1570,312500	-88,550613
1578,125000	-88,513840
1585,937500	-94,356163
1593,750000	-95,182930
1601,562500	-95,192924
1609,375000	-95,233757
1617,187500	-94,276276
1625,000000	-93,141808
1632,812500	-90,760605
1640,625000	-82,398125
1648,437500	-74,942032
1656,250000	-69,241409
1664,062500	-66,519058
1671,875000	-66,208786
1679,687500	-68,611351
1687,500000	-77,394638
1695,312500	-89,029938
1703,125000	-90,758369
1710,937500	-93,241402
1718,750000	-94,937439
1726,562500	-96,748428
1734,375000	-97,273766
1742,187500	-97,600166
1750,000000	-98,337067
1757,812500	-99,134247
1765,625000	-99,844421
1773,437500	-102,258148
1781,250000	-103,086731
1789,062500	-103,144348
1796,875000	-104,003960
1804,687500	-103,501068
1812,500000	-101,621483
1820,312500	-101,541695
1828,125000	-103,070526
1835,937500	-102,940109
1843,750000	-101,363426
1851,562500	-100,138985
1859,375000	-99,427872
1867,187500	-99,176414
1875,000000	-98,927376
1882,812500	-98,601555
1890,625000	-99,107994
1898,437500	-98,312408
1906,250000	-98,964890
1914,062500	-94,837540
1921,875000	-90,254509
1929,687500	-89,057571
1937,500000	-86,013977
1945,312500	-76,561668
1953,125000	-71,166405
1960,937500	-71,968811
1968,750000	-77,992165
1976,562500	-80,154747
1984,375000	-86,453720
1992,187500	-93,611893
2000,000000	-93,936600
2007,812500	-95,620277
2015,625000	-96,931480
2023,437500	-97,060417
2031,250000	-97,900826
2039,062500	-98,993416
2046,875000	-97,143471
2054,687500	-95,254227
2062,500000	-94,241447
2070,312500	-94,089577
2078,125000	-89,116531
2085,937500	-79,530533
2093,750000	-74,120369
2101,562500	-74,912590
2109,375000	-77,451469
2117,187500	-76,319656
2125,000000	-77,549454
2132,812500	-83,913681
2140,625000	-91,557755
2148,437500	-91,017998
2156,250000	-91,037079
2164,062500	-90,986366
2171,875000	-89,895561
2179,687500	-90,415047
2187,500000	-90,054413
2195,312500	-86,621323
2203,125000	-83,263336
2210,937500	-79,409035
2218,750000	-77,890137
2226,562500	-76,601669
2234,375000	-76,629478
2242,187500	-80,078026
2250,000000	-88,319771
2257,812500	-92,827377
2265,625000	-94,038811
2273,437500	-93,353714
2281,250000	-94,207184
2289,062500	-94,845749
2296,875000	-94,219528
2304,687500	-93,521461
2312,500000	-92,341484
2320,312500	-91,266243
2328,125000	-82,893219
2335,937500	-77,203094
2343,750000	-76,616638
2351,562500	-75,602226
2359,375000	-73,609795
2367,187500	-75,025253
2375,000000	-82,410507
2382,812500	-91,319481
2390,625000	-94,927292
2398,437500	-95,219284
2406,250000	-94,901382
2414,062500	-95,947380
2421,875000	-97,281578
2429,687500	-98,235954
2437,500000	-99,426949
2445,312500	-99,591225
2453,125000	-99,526398
2460,937500	-99,578262
2468,750000	-99,000015
2476,562500	-99,793335
2484,375000	-100,784935
2492,187500	-100,413948
2500,000000	-100,414101
2507,812500	-100,668472
2515,625000	-101,491241
2523,437500	-102,971100
2531,250000	-102,173996
2539,062500	-100,654999
2546,875000	-100,555878
2554,687500	-101,208664
2562,500000	-101,494087
2570,312500	-100,379372
2578,125000	-99,514328
2585,937500	-97,801949
2593,750000	-95,137535
2601,562500	-92,245979
2609,375000	-91,114014
2617,187500	-94,028549
2625,000000	-99,249886
2632,812500	-99,023148
2640,625000	-101,852135
2648,437500	-103,427269
2656,250000	-103,143349
2664,062500	-103,709663
2671,875000	-103,815071
2679,687500	-105,078026
2687,500000	-105,118340
2695,312500	-104,078926
2703,125000	-103,399925
2710,937500	-103,653214
2718,750000	-104,317604
2726,562500	-104,960983
2734,375000	-103,165337
2742,187500	-97,796860
2750,000000	-92,882370
2757,812500	-89,133598
2765,625000	-86,614944
2773,437500	-85,616562
2781,250000	-84,900566
2789,062500	-82,931923
2796,875000	-83,939957
2804,687500	-89,102959
2812,500000	-95,336662
2820,312500	-95,152306
2828,125000	-99,546196
2835,937500	-103,912552
2843,750000	-106,583862
2851,562500	-105,336151
2859,375000	-105,284431
2867,187500	-105,867050
2875,000000	-106,990715
2882,812500	-108,366669
2890,625000	-108,646622
2898,437500	-108,310043
2906,250000	-108,066101
2914,062500	-108,737282
2921,875000	-108,255035
2929,687500	-106,938217
2937,500000	-105,416832
2945,312500	-106,245216
2953,125000	-106,203163
2960,937500	-107,357170
2968,750000	-107,966019
2976,562500	-107,518738
2984,375000	-107,915649
2992,187500	-109,438820
3000,000000	-110,480637
3007,812500	-110,579544
3015,625000	-110,034935
3023,437500	-109,119003
3031,250000	-108,040230
3039,062500	-107,448456
3046,875000	-107,634163
3054,687500	-107,885239
3062,500000	-107,729454
3070,312500	-108,840866
3078,125000	-109,381493
3085,937500	-107,916283
3093,750000	-107,135025
3101,562500	-108,007278
3109,375000	-105,131233
3117,187500	-100,319420
3125,000000	-95,471474
3132,812500	-93,649117
3140,625000	-92,874275
3148,437500	-92,872253
3156,250000	-96,221924
3164,062500	-101,679543
3171,875000	-108,117920
3179,687500	-111,491547
3187,500000	-110,996719
3195,312500	-111,110947
3203,125000	-110,201569
3210,937500	-109,363922
3218,750000	-110,158257
3226,562500	-109,287384
3234,375000	-106,392334
3242,187500	-103,333740
3250,000000	-97,381531
3257,812500	-93,992691
3265,625000	-94,102112
3273,437500	-98,740715
3281,250000	-99,946594
3289,062500	-94,921173
3296,875000	-92,534904
3304,687500	-92,768517
3312,500000	-90,728539
3320,312500	-89,915474
3328,125000	-86,242310
3335,937500	-85,488228
3343,750000	-85,162285
3351,562500	-87,055290
3359,375000	-92,345352
3367,187500	-94,215698
3375,000000	-93,152344
3382,812500	-93,518738
3390,625000	-94,743584
3398,437500	-96,266632
3406,250000	-97,733650
3414,062500	-98,779968
3421,875000	-99,311691
3429,687500	-101,040871
3437,500000	-102,270836
3445,312500	-100,247932
3453,125000	-99,467621
3460,937500	-98,937775
3468,750000	-98,536690
3476,562500	-94,736900
3484,375000	-90,500679
3492,187500	-89,064888
3500,000000	-90,108742
3507,812500	-93,247528
3515,625000	-94,302170
3523,437500	-91,366875
3531,250000	-90,569649
3539,062500	-89,431976
3546,875000	-92,337593
3554,687500	-99,714012
3562,500000	-101,180542
3570,312500	-102,207008
3578,125000	-102,306694
3585,937500	-102,264091
3593,750000	-102,106041
3601,562500	-101,360039
3609,375000	-101,496864
3617,187500	-102,103027
3625,000000	-102,786255
3632,812500	-102,736771
3640,625000	-102,368423
3648,437500	-103,070503
3656,250000	-103,284874
3664,062500	-102,866890
3671,875000	-103,122711
3679,687500	-102,370529
3687,500000	-101,870064
3695,312500	-102,061195
3703,125000	-102,324806
3710,937500	-102,873108
3718,750000	-103,241058
3726,562500	-104,200958
3734,375000	-104,932701
3742,187500	-105,077965
3750,000000	-105,377060
3757,812500	-105,585350
3765,625000	-105,246880
3773,437500	-104,497093
3781,250000	-104,266357
3789,062500	-105,563057
3796,875000	-107,453217
3804,687500	-107,072212
3812,500000	-106,394051
3820,312500	-106,514206
3828,125000	-105,865074
3835,937500	-104,536263
3843,750000	-102,683411
3851,562500	-102,409950
3859,375000	-100,685608
3867,187500	-99,177757
3875,000000	-98,374947
3882,812500	-98,743080
3890,625000	-99,663597
3898,437500	-98,253281
3906,250000	-97,122459
3914,062500	-97,992867
3921,875000	-98,599823
3929,687500	-100,256355
3937,500000	-98,795113
3945,312500	-100,771179
3953,125000	-104,823822
3960,937500	-110,635788
3968,750000	-115,222717
3976,562500	-116,887062
3984,375000	-116,530823
3992,187500	-117,050720
