Frecuencia (Hz)	Nivel (dB)
43.066406	-45.006386
86.132813	-44.846115
129.199219	-44.582630
172.265625	-44.201366
215.332031	-43.693974
258.398438	-43.089054
301.464844	-42.329330
344.531250	-41.415298
387.597656	-40.318909
430.664063	-38.988770
473.730469	-37.353310
516.796875	-35.259941
559.863281	-32.451538
602.929688	-28.205664
645.996094	-19.383343
689.062500	-16.709499
732.128906	-27.343313
775.195313	-31.957300
818.261719	-34.934616
861.328125	-37.123409
904.394531	-38.854515
947.460938	-40.275558
990.527344	-41.473495
1033.593750	-42.490654
1076.660156	-43.360870
1119.726563	-44.090084
1162.792969	-44.663303
1205.859375	-44.983719
1248.925781	-44.722256
1291.992188	-42.476910
1335.058594	-27.369795
1378.125000	-39.799957
1421.191406	-44.900726
1464.257813	-46.700878
1507.324219	-47.567966
1550.390625	-48.093006
1593.457031	-48.370266
1636.523438	-48.485390
1679.589844	-48.413647
1722.656250	-48.137798
1765.722656	-47.571636
1808.789063	-46.658489
1851.855469	-45.220829
1894.921875	-42.825493
1937.988281	-39.133102
1981.054688	-31.079086
2024.121094	-23.183929
2067.187500	-37.314617
2110.253906	-41.960098
2153.320313	-44.764637
2196.386719	-46.500927
2239.453125	-47.711403
2282.519531	-48.802837
2325.585938	-49.578201
2368.652344	-50.077831
2411.718750	-50.305885
2454.785156	-50.257309
2497.851563	-49.736233
2540.917969	-48.679153
2583.984375	-46.561123
2627.050781	-42.437416
2670.117188	-30.403183
2713.183594	-34.338947
2756.250000	-42.778408
2799.316406	-46.315819
2842.382813	-48.695702
2885.449219	-50.452011
2928.515625	-51.388157
2971.582031	-51.899632
3014.648438	-52.191387
3057.714844	-52.349781
3100.781250	-52.107822
3143.847656	-51.540859
3186.914063	-50.422688
3229.980469	-48.437439
3273.046875	-45.032410
3316.113281	-37.484119
3359.179688	-25.442509
3402.246094	-40.347263
3445.312500	-46.193684
3488.378906	-49.189045
3531.445313	-51.136219
3574.511719	-52.343693
3617.578125	-53.171360
3660.644531	-53.620296
3703.710938	-53.906052
3746.777344	-53.821499
3789.843750	-53.227634
3832.910156	-52.340363
3875.976563	-50.738663
3919.042969	-48.221436
3962.109375	-44.280506
4005.175781	-32.970253
4048.242188	-32.298370
4091.308594	-43.666912
4134.375000	-47.949986
4177.441406	-50.396370
4220.507813	-52.038002
4263.574219	-53.285587
4306.640625	-54.158554
4349.707031	-54.772503
4392.773438	-54.830784
4435.839844	-54.890678
4478.906250	-55.347481
4521.972656	-55.872967
4565.039063	-55.908512
4608.105469	-55.903900
4651.171875	-52.755398
4694.238281	-45.385475
4737.304688	-53.060543
4780.371094	-56.765034
4823.437500	-57.445446
4866.503906	-57.839325
4909.570313	-57.917850
4952.636719	-57.862587
4995.703125	-56.880936
5038.769531	-55.663605
5081.835938	-56.387558
5124.902344	-56.758392
5167.968750	-56.768005
5211.035156	-55.792370
5254.101563	-54.121208
5297.167969	-50.853039
5340.234375	-40.164562
5383.300781	-35.365192
5426.367188	-48.801128
5469.433594	-53.322620
5512.500000	-55.274166
5555.566406	-55.906078
5598.632813	-56.410301
5641.699219	-56.769112
5684.765625	-57.355228
5727.832031	-58.180103
5770.898438	-58.935627
5813.964844	-59.226677
5857.031250	-59.190598
5900.097656	-58.837967
5943.164063	-57.646793
5986.230469	-54.379097
6029.296875	-46.704758
6072.363281	-45.393635
6115.429688	-53.750111
6158.496094	-56.400387
6201.562500	-58.109932
6244.628906	-59.447956
6287.695313	-59.759811
6330.761719	-60.088806
6373.828125	-59.964062
6416.894531	-59.814518
6459.960938	-59.413570
6503.027344	-58.709671
6546.093750	-57.410076
6589.160156	-55.619167
6632.226563	-52.323841
6675.292969	-43.216217
6718.359375	-35.977444
6761.425781	-45.483158
6804.492188	-52.578880
6847.558594	-56.146530
6890.625000	-58.059277
6933.691406	-59.368179
6976.757813	-60.211586
7019.824219	-60.666985
7062.890625	-61.219215
7105.957031	-61.571674
7149.023438	-61.801720
7192.089844	-61.688290
7235.156250	-61.542038
7278.222656	-60.539524
7321.289063	-58.793610
7364.355469	-52.682812
7407.421875	-51.816322
7450.488281	-60.502693
7493.554688	-62.350052
7536.621094	-62.673027
7579.687500	-63.030334
7622.753906	-63.265076
7665.820313	-63.432182
7708.886719	-63.435753
7751.953125	-63.630287
7795.019531	-63.588345
7838.085938	-63.576538
7881.152344	-63.449833
7924.218750	-63.284958
7967.285156	-62.687637
8010.351563	-60.129025
8053.417969	-56.790638
8096.484375	-61.253864
8139.550781	-63.806850
8182.617188	-64.323860
8225.683594	-64.341476
8268.750000	-64.386047
8311.816406	-64.477348
8354.882813	-64.628510
8397.949219	-64.651749
8441.015625	-64.773949
8484.082031	-64.653931
8527.148438	-64.761627
8570.214844	-64.734116
8613.281250	-64.810059
8656.347656	-64.754112
8699.414063	-62.811356
8742.480469	-61.764462
8785.546875	-64.577614
8828.613281	-64.988434
8871.679688	-65.252960
8914.746094	-65.273483
8957.812500	-65.330551
9000.878906	-65.326622
9043.945313	-65.405769
9087.011719	-65.523010
9130.078125	-65.545006
9173.144531	-65.579926
9216.210938	-65.637238
9259.277344	-65.646057
9302.343750	-65.641495
9345.410156	-65.549431
9388.476563	-65.372581
9431.542969	-65.240677
9474.609375	-65.839996
9517.675781	-65.867081
9560.742188	-65.951927
9603.808594	-66.004974
9646.875000	-66.050850
9689.941406	-66.100708
9733.007813	-66.074432
9776.074219	-66.133545
9819.140625	-66.191376
9862.207031	-66.211166
9905.273438	-66.240021
9948.339844	-66.291130
9991.406250	-66.284348
10034.472656	-66.219849
10077.539063	-65.916817
10120.605469	-66.250168
10163.671875	-66.333900
10206.738281	-66.494141
10249.804688	-66.530403
10292.871094	-66.577721
10335.937500	-66.583076
10379.003906	-66.612648
10422.070313	-66.638794
10465.136719	-66.675606
10508.203125	-66.720284
10551.269531	-66.743210
10594.335938	-66.787361
10637.402344	-66.827766
10680.468750	-66.808647
10723.535156	-66.746819
10766.601563	-66.802261
10809.667969	-66.861893
10852.734375	-66.922363
10895.800781	-66.976624
10938.867188	-67.019745
10981.933594	-67.052475
11025.000000	-67.039436
11068.066406	-67.112747
11111.132813	-67.126900
11154.199219	-67.158470
11197.265625	-67.180466
11240.332031	-67.216263
11283.398438	-67.240829
11326.464844	-67.242485
11369.531250	-67.243034
11412.597656	-67.327499
11455.664063	-67.399170
11498.730469	-67.388626
11541.796875	-67.420227
11584.863281	-67.472267
11627.929688	-67.455757
11670.996094	-67.493416
11714.062500	-67.508591
11757.128906	-67.554359
11800.195313	-67.571213
11843.261719	-67.589928
11886.328125	-67.592628
11929.394531	-67.654572
11972.460938	-67.672989
12015.527344	-67.706696
12058.593750	-67.693153
12101.660156	-67.746078
12144.726563	-67.808807
12187.792969	-67.800743
12230.859375	-67.808739
12273.925781	-67.861839
12316.992188	-67.859978
12360.058594	-67.892204
12403.125000	-67.898438
12446.191406	-67.946381
12489.257813	-67.992851
12532.324219	-67.980186
12575.390625	-68.041351
12618.457031	-68.004387
12661.523438	-68.045151
12704.589844	-68.055420
12747.656250	-68.104256
12790.722656	-68.135887
12833.789063	-68.147285
12876.855469	-68.169861
12919.921875	-68.199280
12962.988281	-68.206978
13006.054688	-68.229553
13049.121094	-68.237663
13092.187500	-68.260117
13135.253906	-68.299141
13178.320313	-68.317848
13221.386719	-68.350822
13264.453125	-68.359184
13307.519531	-68.398277
13350.585938	-68.379631
13393.652344	-68.413994
13436.718750	-68.435364
13479.785156	-68.468269
13522.851563	-68.482086
13565.917969	-68.487404
13608.984375	-68.504395
13652.050781	-68.525116
13695.117188	-68.555611
13738.183594	-68.557693
13781.250000	-68.541039
13824.316406	-68.602707
13867.382813	-68.634224
13910.449219	-68.654037
13953.515625	-68.656197
13996.582031	-68.686852
14039.648438	-68.691406
14082.714844	-68.707779
14125.781250	-68.696053
14168.847656	-68.733788
14211.914063	-68.764313
14254.980469	-68.797836
14298.046875	-68.811478
14341.113281	-68.807060
14384.179688	-68.844353
14427.246094	-68.852028
14470.312500	-68.868446
14513.378906	-68.894524
14556.445313	-68.928146
14599.511719	-68.932739
14642.578125	-68.921799
14685.644531	-68.941162
14728.710938	-68.971481
14771.777344	-68.976120
14814.843750	-69.005287
14857.910156	-69.048279
14900.976563	-69.042694
14944.042969	-69.050354
14987.109375	-69.075356
15030.175781	-69.067513
15073.242188	-69.071838
15116.308594	-69.133682
15159.375000	-69.123627
15202.441406	-69.143906
15245.507813	-69.169205
15288.574219	-69.191750
15331.640625	-69.175423
15374.707031	-69.185005
15417.773438	-69.235489
15460.839844	-69.225739
15503.906250	-69.221260
15546.972656	-69.249023
15590.039063	-69.262886
15633.105469	-69.294670
15676.171875	-69.288643
15719.238281	-69.308830
15762.304688	-69.335396
15805.371094	-69.342255
15848.437500	-69.311775
15891.503906	-69.360535
15934.570313	-69.385933
15977.636719	-69.407227
16020.703125	-69.393341
16063.769531	-69.415428
16106.835938	-69.437424
16149.902344	-69.401543
16192.968750	-69.444191
16236.035156	-69.464188
16279.101563	-69.473114
16322.167969	-69.494850
16365.234375	-69.492996
16408.300781	-69.513664
16451.367188	-69.514992
16494.433594	-69.533745
16537.500000	-69.528206
16580.566406	-69.541412
16623.632813	-69.556068
16666.699219	-69.553223
16709.765625	-69.583183
16752.832031	-69.576111
16795.898438	-69.606537
16838.964844	-69.624260
16882.031250	-69.654060
16925.097656	-69.643700
16968.164063	-69.673691
17011.230469	-69.664406
17054.296875	-69.666473
17097.363281	-69.702530
17140.429688	-69.698174
17183.496094	-69.709961
17226.562500	-69.758476
17269.628906	-69.714996
17312.695313	-69.741440
17355.761719	-69.735443
17398.828125	-69.748978
17441.894531	-69.778542
17484.960938	-69.793877
17528.027344	-69.770149
17571.093750	-69.827682
17614.160156	-69.798454
17657.226563	-69.813148
17700.292969	-69.827156
17743.359375	-69.821663
17786.425781	-69.813843
17829.492188	-69.824211
17872.558594	-69.846535
17915.625000	-69.817307
17958.691406	-69.855598
18001.757813	-69.873917
18044.824219	-69.931602
18087.890625	-69.873360
18130.957031	-69.900375
18174.023438	-69.924286
18217.089844	-69.909515
18260.156250	-69.918060
18303.222656	-69.965065
18346.289063	-69.964531
18389.355469	-69.953636
18432.421875	-69.953270
18475.488281	-69.969894
18518.554688	-69.967529
18561.621094	-69.995583
18604.687500	-69.989052
18647.753906	-70.022156
18690.820313	-70.025925
18733.886719	-70.018944
18776.953125	-70.021957
18820.019531	-69.999962
18863.085938	-70.004852
18906.152344	-70.027786
18949.218750	-70.006660
18992.285156	-70.059731
19035.351563	-70.078873
19078.417969	-70.049248
19121.484375	-70.073189
19164.550781	-70.067421
19207.617188	-70.056816
19250.683594	-70.087807
19293.750000	-70.081894
19336.816406	-70.096413
19379.882813	-70.114380
19422.949219	-70.114197
19466.015625	-70.134697
19509.082031	-70.118713
19552.148438	-70.117004
19595.214844	-70.112434
19638.281250	-70.118355
19681.347656	-70.180855
19724.414063	-70.127289
19767.480469	-70.148262
19810.546875	-70.150711
19853.613281	-70.141876
19896.679688	-70.126114
19939.746094	-70.131836
19982.812500	-70.182785
20025.878906	-70.162201
20068.945313	-70.183174
20112.011719	-70.161667
20155.078125	-70.196793
20198.144531	-70.167786
20241.210938	-70.181480
20284.277344	-70.167343
20327.343750	-70.155075
20370.410156	-70.175392
20413.476563	-70.181839
20456.542969	-70.191498
20499.609375	-70.209648
20542.675781	-70.192863
20585.742188	-70.246605
20628.808594	-70.217140
20671.875000	-70.207863
20714.941406	-70.231071
20758.007813	-70.217880
20801.074219	-70.205528
20844.140625	-70.220139
20887.207031	-70.234932
20930.273438	-70.218933
20973.339844	-70.240334
21016.406250	-70.248848
21059.472656	-70.226585
21102.539063	-70.250214
21145.605469	-70.240860
21188.671875	-70.235184
21231.738281	-70.262146
21274.804688	-70.250374
21317.871094	-70.240845
21360.937500	-70.242119
21404.003906	-70.248306
21447.070313	-70.264854
21490.136719	-70.265411
21533.203125	-70.260185
21576.269531	-70.266518
21619.335938	-70.256790
21662.402344	-70.266556
21705.468750	-70.266823
21748.535156	-70.269753
21791.601563	-70.265091
21834.667969	-70.257584
21877.734375	-70.266136
21920.800781	-70.266869
21963.867188	-70.268059
22006.933594	-70.261444
