Frecuencia (Hz)	Nivel (dB)
43.066406	-52.088829
86.132813	-51.819771
129.199219	-51.554649
172.265625	-51.103302
215.332031	-50.453373
258.398438	-49.682518
301.464844	-48.680294
344.531250	-47.460957
387.597656	-45.953495
430.664063	-44.030247
473.730469	-41.464890
516.796875	-37.704014
559.863281	-30.773430
602.929688	-15.002213
645.996094	-33.845955
689.062500	-39.194611
732.128906	-42.445152
775.195313	-44.770157
818.261719	-46.514721
861.328125	-47.892700
904.394531	-48.955811
947.460938	-49.744770
990.527344	-50.127399
1033.593750	-50.020218
1076.660156	-49.011269
1119.726563	-46.289742
1162.792969	-38.942326
1205.859375	-30.046291
1248.925781	-44.534798
1291.992188	-48.841892
1335.058594	-51.213097
1378.125000	-52.649261
1421.191406	-53.633823
1464.257813	-54.199055
1507.324219	-54.507954
1550.390625	-54.464558
1593.457031	-54.025333
1636.523438	-52.995506
1679.589844	-51.062660
1722.656250	-47.401031
1765.722656	-38.100067
1808.789063	-31.927746
1851.855469	-45.973766
1894.921875	-50.497948
1937.988281	-53.097305
1981.054688	-54.745079
2024.121094	-55.923332
2067.187500	-56.781132
2110.253906	-57.275112
2153.320313	-57.499943
2196.386719	-57.252323
2239.453125	-56.433445
2282.519531	-55.229034
2325.585938	-52.127293
2368.652344	-42.097713
2411.718750	-40.182201
2454.785156	-52.245541
2497.851563	-56.032608
2540.917969	-58.014603
2583.984375	-59.232346
2627.050781	-59.975540
2670.117188	-60.233311
2713.183594	-59.620590
2756.250000	-59.909054
2799.316406	-60.273178
2842.382813	-59.715149
2885.449219	-57.981865
2928.515625	-53.542927
2971.582031	-42.588181
3014.648438	-42.800686
3057.714844	-54.517002
3100.781250	-58.187534
3143.847656	-59.993896
3186.914063	-61.030464
3229.980469	-61.164314
3273.046875	-61.229725
3316.113281	-61.578815
3359.179688	-61.962425
3402.246094	-61.707958
3445.312500	-60.875542
3488.378906	-58.892303
3531.445313	-54.028999
3574.511719	-42.927792
3617.578125	-45.220509
3660.644531	-56.202522
3703.710938	-60.099838
3746.777344	-61.988270
3789.843750	-63.057163
3832.910156	-63.204277
3875.976563	-63.507126
3919.042969	-64.286057
3962.109375	-64.822151
4005.175781	-64.999138
4048.242188	-64.729431
4091.308594	-63.396248
4134.375000	-57.957729
4177.441406	-50.359383
4220.507813	-51.767662
4263.574219	-61.375908
4306.640625	-63.977760
4349.707031	-64.774620
4392.773438	-64.972748
4435.839844	-64.768791
4478.906250	-64.512024
4521.972656	-65.117958
4565.039063	-65.117157
4608.105469	-64.691200
4651.171875	-63.475094
4694.238281	-60.826115
4737.304688	-53.290173
4780.371094	-45.491978
4823.437500	-48.995384
4866.503906	-59.166916
4909.570313	-62.779591
4952.636719	-63.463276
4995.703125	-62.956280
5038.769531	-63.985844
5081.835938	-65.505981
5124.902344	-66.921364
5167.968750	-66.898636
5211.035156	-66.919350
5254.101563	-65.942848
5297.167969	-63.228855
5340.234375	-57.659992
5383.300781	-50.468361
5426.367188	-51.370953
5469.433594	-60.700974
5512.500000	-62.779598
5555.566406	-64.088600
5598.632813	-65.973488
5641.699219	-67.557739
5684.765625	-67.984230
5727.832031	-68.438484
5770.898438	-68.363190
5813.964844	-67.792336
5857.031250	-66.550720
5900.097656	-62.977486
5943.164063	-53.889305
5986.230469	-50.688091
6029.296875	-53.628345
6072.363281	-61.416447
6115.429688	-64.277573
6158.496094	-66.403275
6201.562500	-68.078423
6244.628906	-69.248138
6287.695313	-69.685471
6330.761719	-69.905151
6373.828125	-69.972763
6416.894531	-69.912354
6459.960938	-69.384254
6503.027344	-67.683693
6546.093750	-61.879631
6589.160156	-55.527294
6632.226563	-56.821865
6675.292969	-63.968697
6718.359375	-66.747231
6761.425781	-68.370087
6804.492188	-69.824120
6847.558594	-70.678589
6890.625000	-70.742378
6933.691406	-70.967964
6976.757813	-70.994835
7019.824219	-70.594543
7062.890625	-69.537193
7105.957031	-66.028290
7149.023438	-59.660194
7192.089844	-58.327660
7235.156250	-60.831348
7278.222656	-67.876495
7321.289063	-70.327133
7364.355469	-71.403053
7407.421875	-71.848366
7450.488281	-72.129639
7493.554688	-72.284752
7536.621094	-72.405380
7579.687500	-72.438843
7622.753906	-72.530518
7665.820313	-72.396370
7708.886719	-71.521477
7751.953125	-67.919365
7795.019531	-66.745522
7838.085938	-68.465317
7881.152344	-70.803345
7924.218750	-72.079681
7967.285156	-72.563965
8010.351563	-72.766663
8053.417969	-73.016647
8096.484375	-73.081848
8139.550781	-73.169052
8182.617188	-73.279533
8225.683594	-73.213432
8268.750000	-72.976524
8311.816406	-72.327812
8354.882813	-70.395874
8397.949219	-68.867470
8441.015625	-70.191833
8484.082031	-72.586746
8527.148438	-73.300797
8570.214844	-73.562019
8613.281250	-73.693977
8656.347656	-73.739418
8699.414063	-73.814362
8742.480469	-73.832893
8785.546875	-73.859375
8828.613281	-73.841454
8871.679688	-73.622200
8914.746094	-73.124557
8957.812500	-72.004402
9000.878906	-71.961220
9043.945313	-72.991371
9087.011719	-73.927696
9130.078125	-74.228416
9173.144531	-74.271667
9216.210938	-74.285919
9259.277344	-74.377357
9302.343750	-74.437820
9345.410156	-74.433426
9388.476563	-74.449806
9431.542969	-74.480896
9474.609375	-74.491982
9517.675781	-74.193932
9560.742188	-73.879730
9603.808594	-73.805473
9646.875000	-74.277733
9689.941406	-74.629791
9733.007813	-74.676498
9776.074219	-74.768303
9819.140625	-74.835571
9862.207031	-74.848351
9905.273438	-74.903915
9948.339844	-74.932129
9991.406250	-74.980530
10034.472656	-74.980385
10077.539063	-74.987968
10120.605469	-74.989555
10163.671875	-75.057259
10206.738281	-75.008408
10249.804688	-75.080536
10292.871094	-75.190971
10335.937500	-75.253288
10379.003906	-75.252335
10422.070313	-75.290131
10465.136719	-75.316170
10508.203125	-75.440628
10551.269531	-75.394508
10594.335938	-75.448914
10637.402344	-75.438995
10680.468750	-75.464554
10723.535156	-75.486603
10766.601563	-75.564758
10809.667969	-75.564011
10852.734375	-75.565605
10895.800781	-75.618561
10938.867188	-75.691406
10981.933594	-75.653839
11025.000000	-75.649696
11068.066406	-75.725037
11111.132813	-75.677620
11154.199219	-75.782265
11197.265625	-75.900307
11240.332031	-75.839027
11283.398438	-75.827950
11326.464844	-75.883995
11369.531250	-75.921722
11412.597656	-75.957100
11455.664063	-75.974365
11498.730469	-76.031830
11541.796875	-76.026138
11584.863281	-76.071297
11627.929688	-76.046402
11670.996094	-76.116714
11714.062500	-76.134300
11757.128906	-76.139748
11800.195313	-76.142960
11843.261719	-76.199959
11886.328125	-76.261414
11929.394531	-76.233780
11972.460938	-76.345680
12015.527344	-76.276535
12058.593750	-76.390221
12101.660156	-76.341934
12144.726563	-76.332001
12187.792969	-76.403297
12230.859375	-76.420769
12273.925781	-76.466660
12316.992188	-76.415276
12360.058594	-76.501732
12403.125000	-76.499550
12446.191406	-76.506653
12489.257813	-76.576065
12532.324219	-76.571136
12575.390625	-76.615265
12618.457031	-76.621910
12661.523438	-76.573021
12704.589844	-76.655144
12747.656250	-76.609161
12790.722656	-76.701591
12833.789063	-76.745941
12876.855469	-76.718063
12919.921875	-76.805977
12962.988281	-76.767952
13006.054688	-76.705307
13049.121094	-76.819733
13092.187500	-76.843445
13135.253906	-76.854080
13178.320313	-76.932510
13221.386719	-76.877815
13264.453125	-77.014023
13307.519531	-76.967110
13350.585938	-76.988655
13393.652344	-76.988022
13436.718750	-77.004669
13479.785156	-77.037041
13522.851563	-77.066849
13565.917969	-77.076790
13608.984375	-77.033882
13652.050781	-77.129387
13695.117188	-77.166954
13738.183594	-77.116714
13781.250000	-77.200035
13824.316406	-77.175446
13867.382813	-77.171936
13910.449219	-77.220360
13953.515625	-77.224556
13996.582031	-77.266663
14039.648438	-77.330460
14082.714844	-77.298271
14125.781250	-77.319183
14168.847656	-77.311943
14211.914063	-77.361557
14254.980469	-77.354851
14298.046875	-77.358978
14341.113281	-77.375008
14384.179688	-77.399078
14427.246094	-77.426544
14470.312500	-77.471817
14513.378906	-77.495041
14556.445313	-77.538536
14599.511719	-77.471329
14642.578125	-77.367424
14685.644531	-77.482666
14728.710938	-77.527687
14771.777344	-77.516342
14814.843750	-77.604988
14857.910156	-77.568375
14900.976563	-77.565018
14944.042969	-77.614029
14987.109375	-77.602051
15030.175781	-77.667015
15073.242188	-77.603203
15116.308594	-77.682327
15159.375000	-77.714874
15202.441406	-77.693207
15245.507813	-77.769341
15288.574219	-77.747963
15331.640625	-77.780624
15374.707031	-77.765755
15417.773438	-77.739594
15460.839844	-77.767502
15503.906250	-77.817863
15546.972656	-77.798111
15590.039063	-77.862610
15633.105469	-77.820488
15676.171875	-77.904816
15719.238281	-77.888008
15762.304688	-77.930367
15805.371094	-77.886292
15848.437500	-77.844154
15891.503906	-77.864311
15934.570313	-77.966713
15977.636719	-77.931740
16020.703125	-77.958290
16063.769531	-77.985680
16106.835938	-77.983025
16149.902344	-78.009262
16192.968750	-78.062904
16236.035156	-78.002617
16279.101563	-77.991570
16322.167969	-78.069458
16365.234375	-78.124649
16408.300781	-78.073273
16451.367188	-78.116165
16494.433594	-78.112617
16537.500000	-78.076477
16580.566406	-78.112572
16623.632813	-78.130898
16666.699219	-78.201103
16709.765625	-78.086288
16752.832031	-78.190170
16795.898438	-78.159248
16838.964844	-78.178070
16882.031250	-78.159531
16925.097656	-78.212105
16968.164063	-78.216911
17011.230469	-78.249420
17054.296875	-78.221252
17097.363281	-78.238686
17140.429688	-78.161972
17183.496094	-78.225761
17226.562500	-78.274452
17269.628906	-78.272583
17312.695313	-78.237625
17355.761719	-78.288948
17398.828125	-78.237877
17441.894531	-78.346664
17484.960938	-78.330383
17528.027344	-78.359184
17571.093750	-78.390236
17614.160156	-78.364349
17657.226563	-78.334183
17700.292969	-78.381233
17743.359375	-78.439850
17786.425781	-78.370605
17829.492188	-78.347069
17872.558594	-78.364647
17915.625000	-78.469009
17958.691406	-78.429138
18001.757813	-78.493202
18044.824219	-78.430237
18087.890625	-78.456741
18130.957031	-78.483376
18174.023438	-78.418129
18217.089844	-78.473625
18260.156250	-78.431114
18303.222656	-78.457825
18346.289063	-78.530006
18389.355469	-78.520767
18432.421875	-78.533913
18475.488281	-78.554146
18518.554688	-78.539566
18561.621094	-78.520317
18604.687500	-78.583221
18647.753906	-78.533699
18690.820313	-78.546913
18733.886719	-78.520226
18776.953125	-78.521843
18820.019531	-78.547493
18863.085938	-78.567009
18906.152344	-78.581589
18949.218750	-78.659462
18992.285156	-78.586212
19035.351563	-78.593529
19078.417969	-78.626633
19121.484375	-78.619415
19164.550781	-78.651550
19207.617188	-78.650604
19250.683594	-78.571449
19293.750000	-78.640373
19336.816406	-78.585815
19379.882813	-78.580490
19422.949219	-78.669342
19466.015625	-78.585846
19509.082031	-78.652412
19552.148438	-78.657883
19595.214844	-78.670761
19638.281250	-78.608276
19681.347656	-78.672707
19724.414063	-78.732735
19767.480469	-78.699356
19810.546875	-78.743980
19853.613281	-78.654945
19896.679688	-78.671173
19939.746094	-78.662750
19982.812500	-78.651123
20025.878906	-78.717949
20068.945313	-78.642723
20112.011719	-78.734451
20155.078125	-78.656845
20198.144531	-78.736244
20241.210938	-78.734230
20284.277344	-78.709427
20327.343750	-78.722198
20370.410156	-78.730522
20413.476563	-78.736877
20456.542969	-78.737679
20499.609375	-78.689087
20542.675781	-78.756020
20585.742188	-78.825165
20628.808594	-78.770439
20671.875000	-78.742302
20714.941406	-78.751747
20758.007813	-78.673515
20801.074219	-78.801552
20844.140625	-78.764442
20887.207031	-78.796173
20930.273438	-78.755333
20973.339844	-78.799034
21016.406250	-78.785713
21059.472656	-78.779243
21102.539063	-78.807205
21145.605469	-78.825523
21188.671875	-78.802666
21231.738281	-78.826843
21274.804688	-78.822144
21317.871094	-78.824684
21360.937500	-78.829506
21404.003906	-78.813118
21447.070313	-78.803078
21490.136719	-78.807587
21533.203125	-78.830536
21576.269531	-78.832527
21619.335938	-78.821243
21662.402344	-78.813469
21705.468750	-78.812424
21748.535156	-78.828949
21791.601563	-78.837326
21834.667969	-78.841881
21877.734375	-78.838501
21920.800781	-78.844437
21963.867188	-78.849190
22006.933594	-78.833275
