Frecuencia (Hz)	Nivel (dB)
46,875000	-50,902527
93,750000	-50,451939
140,625000	-50,466831
187,500000	-50,063435
234,375000	-49,220081
281,250000	-48,500278
328,125000	-47,333771
375,000000	-45,767681
421,875000	-43,471275
468,750000	-39,639313
515,625000	-28,086376
562,500000	-31,982275
609,375000	-28,820736
656,250000	-26,482117
703,125000	-30,384644
750,000000	-37,520725
796,875000	-33,421413
843,750000	-39,510094
890,625000	-27,606800
937,500000	-34,443184
984,375000	-24,923927
1031,250000	-27,995220
1078,125000	-36,611332
1125,000000	-40,894115
1171,875000	-39,414646
1218,750000	-43,340099
1265,625000	-45,387539
1312,500000	-41,110844
1359,375000	-41,848309
1406,250000	-41,024487
1453,125000	-39,236309
1500,000000	-47,236530
1546,875000	-47,739651
1593,750000	-34,965176
1640,625000	-48,798382
1687,500000	-49,253017
1734,375000	-46,303795
1781,250000	-31,856192
1828,125000	-43,305702
1875,000000	-47,343796
1921,875000	-45,001652
1968,750000	-39,829536
2015,625000	-32,811806
2062,500000	-45,699287
2109,375000	-41,946831
2156,250000	-44,013222
2203,125000	-50,740208
2250,000000	-51,001423
2296,875000	-48,484791
2343,750000	-42,173317
2390,625000	-30,485971
2437,500000	-46,114204
2484,375000	-51,403549
2531,250000	-53,312607
2578,125000	-53,543663
2625,000000	-48,008888
2671,875000	-44,485100
2718,750000	-50,627216
2765,625000	-54,248310
2812,500000	-52,768223
2859,375000	-41,904366
2906,250000	-49,202530
2953,125000	-46,478928
3000,000000	-38,657364
3046,875000	-39,718002
3093,750000	-49,562492
3140,625000	-52,169720
3187,500000	-47,408085
3234,375000	-54,786774
3281,250000	-54,349194
3328,125000	-43,080856
3375,000000	-52,054188
3421,875000	-56,805668
3468,750000	-57,522163
3515,625000	-56,213497
3562,500000	-47,998280
3609,375000	-47,790916
3656,250000	-57,206924
3703,125000	-55,394108
3750,000000	-59,135857
3796,875000	-59,272747
3843,750000	-58,723557
3890,625000	-56,835091
3937,500000	-51,412624
3984,375000	-43,320511
4031,250000	-43,187279
4078,125000	-52,636433
4125,000000	-57,601440
4171,875000	-57,660522
4218,750000	-57,706814
4265,625000	-55,144550
4312,500000	-52,580944
4359,375000	-60,003056
4406,250000	-59,744045
4453,125000	-53,215176
4500,000000	-46,573563
4546,875000	-55,754333
4593,750000	-60,069302
4640,625000	-60,017326
4687,500000	-59,530571
4734,375000	-59,491280
4781,250000	-57,907005
4828,125000	-63,361404
4875,000000	-63,759937
4921,875000	-62,467075
4968,750000	-56,933170
5015,625000	-51,412033
5062,500000	-53,636848
5109,375000	-60,950359
5156,250000	-63,508957
5203,125000	-64,314934
5250,000000	-64,791275
5296,875000	-63,064209
5343,750000	-58,307411
5390,625000	-57,873611
5437,500000	-62,561085
5484,375000	-65,140144
5531,250000	-63,748390
5578,125000	-59,472755
5625,000000	-64,390358
5671,875000	-65,089729
5718,750000	-62,722763
5765,625000	-65,364571
5812,500000	-66,858833
5859,375000	-67,129585
5906,250000	-67,287102
5953,125000	-66,734329
6000,000000	-66,398422
6046,875000	-65,432465
6093,750000	-66,862160
6140,625000	-67,461563
6187,500000	-67,713844
6234,375000	-66,818092
6281,250000	-66,213699
6328,125000	-67,025604
6375,000000	-67,430313
6421,875000	-68,107674
6468,750000	-68,267532
6515,625000	-68,252678
6562,500000	-68,514610
6609,375000	-68,519241
6656,250000	-67,663948
6703,125000	-68,005005
6750,000000	-68,690460
6796,875000	-68,966537
6843,750000	-68,954071
6890,625000	-68,912605
6937,500000	-68,978653
6984,375000	-69,135338
7031,250000	-68,987289
7078,125000	-69,182976
7125,000000	-69,097366
7171,875000	-68,940048
7218,750000	-69,055931
7265,625000	-69,449387
7312,500000	-69,458382
7359,375000	-69,492424
7406,250000	-69,707619
7453,125000	-69,792450
7500,000000	-69,855309
7546,875000	-69,847565
7593,750000	-69,977478
7640,625000	-70,030342
7687,500000	-70,086075
7734,375000	-70,052094
7781,250000	-70,208672
7828,125000	-70,033867
7875,000000	-70,132431
7921,875000	-69,862335
7968,750000	-69,772705
8015,625000	-69,685997
8062,500000	-69,801666
8109,375000	-69,939087
8156,250000	-70,385399
8203,125000	-70,555305
8250,000000	-70,584648
8296,875000	-70,634407
8343,750000	-70,686562
8390,625000	-70,711639
8437,500000	-70,755371
8484,375000	-70,839783
8531,250000	-70,874222
8578,125000	-70,841194
8625,000000	-70,946518
8671,875000	-70,954857
8718,750000	-71,043732
8765,625000	-71,114738
8812,500000	-71,196220
8859,375000	-71,247887
8906,250000	-71,238747
8953,125000	-71,229309
9000,000000	-71,267456
9046,875000	-71,199265
9093,750000	-71,234650
9140,625000	-71,403687
9187,500000	-71,436302
9234,375000	-71,515167
9281,250000	-71,532570
9328,125000	-71,599167
9375,000000	-71,736023
9421,875000	-71,740257
9468,750000	-71,819420
9515,625000	-71,839996
9562,500000	-71,748062
9609,375000	-71,892555
9656,250000	-71,971489
9703,125000	-72,004875
9750,000000	-72,041466
9796,875000	-72,086166
9843,750000	-72,071304
9890,625000	-72,171921
9937,500000	-72,195396
9984,375000	-72,136337
10031,250000	-72,240395
10078,125000	-72,101555
10125,000000	-72,314903
10171,875000	-72,399292
10218,750000	-72,364044
10265,625000	-72,310829
10312,500000	-72,416321
10359,375000	-72,517929
10406,250000	-72,523491
10453,125000	-72,601395
10500,000000	-72,612869
10546,875000	-72,645172
10593,750000	-72,644203
10640,625000	-72,694893
10687,500000	-72,718903
10734,375000	-72,729156
10781,250000	-72,766739
10828,125000	-72,848526
10875,000000	-72,882973
10921,875000	-72,951431
10968,750000	-72,951622
11015,625000	-73,027847
11062,500000	-72,940125
11109,375000	-73,139069
11156,250000	-73,022583
11203,125000	-73,071251
11250,000000	-73,115608
11296,875000	-73,207077
11343,750000	-73,181396
11390,625000	-73,261292
11437,500000	-73,181770
11484,375000	-73,303307
11531,250000	-73,327263
11578,125000	-73,374474
11625,000000	-73,337273
11671,875000	-73,330200
11718,750000	-73,407867
11765,625000	-73,428192
11812,500000	-73,479309
11859,375000	-73,458649
11906,250000	-73,583504
11953,125000	-73,552620
12000,000000	-73,636864
12046,875000	-73,642006
12093,750000	-73,645798
12140,625000	-73,634346
12187,500000	-73,719681
12234,375000	-73,712875
12281,250000	-73,763634
12328,125000	-73,722946
12375,000000	-73,885010
12421,875000	-73,857376
12468,750000	-73,887413
12515,625000	-73,878098
12562,500000	-73,871094
12609,375000	-73,952843
12656,250000	-73,980888
12703,125000	-73,925888
12750,000000	-74,019844
12796,875000	-73,969299
12843,750000	-74,040428
12890,625000	-74,082619
12937,500000	-74,169159
12984,375000	-74,093193
13031,250000	-74,187157
13078,125000	-74,220360
13125,000000	-74,150673
13171,875000	-74,244034
13218,750000	-74,248360
13265,625000	-74,284126
13312,500000	-74,266808
13359,375000	-74,310249
13406,250000	-74,364304
13453,125000	-74,382576
13500,000000	-74,376846
13546,875000	-74,422050
13593,750000	-74,451607
13640,625000	-74,415306
13687,500000	-74,450363
13734,375000	-74,525642
13781,250000	-74,506454
13828,125000	-74,501846
13875,000000	-74,549400
13921,875000	-74,635155
13968,750000	-74,517838
14015,625000	-74,677345
14062,500000	-74,679207
14109,375000	-74,679520
14156,250000	-74,647507
14203,125000	-74,802414
14250,000000	-74,747482
14296,875000	-74,730179
14343,750000	-74,728500
14390,625000	-74,762794
14437,500000	-74,847260
14484,375000	-74,829399
14531,250000	-74,902443
14578,125000	-74,842682
14625,000000	-74,873016
14671,875000	-74,844986
14718,750000	-74,861588
14765,625000	-74,913795
14812,500000	-74,876671
14859,375000	-74,996346
14906,250000	-74,982407
14953,125000	-75,033669
15000,000000	-75,053856
15046,875000	-75,122147
15093,750000	-75,090355
15140,625000	-74,995880
15187,500000	-75,095650
15234,375000	-75,073257
15281,250000	-75,135971
15328,125000	-75,248070
15375,000000	-75,179581
15421,875000	-75,261002
15468,750000	-75,200432
15515,625000	-75,106461
15562,500000	-75,222870
15609,375000	-75,302055
15656,250000	-75,311485
15703,125000	-75,212173
15750,000000	-75,330376
15796,875000	-75,329033
15843,750000	-75,312958
15890,625000	-75,297119
15937,500000	-75,397224
15984,375000	-75,369431
16031,250000	-75,337105
16078,125000	-75,383926
16125,000000	-75,537888
16171,875000	-75,562233
16218,750000	-75,570168
16265,625000	-75,590157
16312,500000	-75,603500
16359,375000	-75,616402
16406,250000	-75,634979
16453,125000	-75,650993
16500,000000	-75,668175
16546,875000	-75,681572
16593,750000	-75,695290
16640,625000	-75,706779
16687,500000	-75,722679
16734,375000	-75,737366
16781,250000	-75,750885
16828,125000	-75,767380
16875,000000	-75,778938
16921,875000	-75,795975
16968,750000	-75,805809
17015,625000	-75,819618
17062,500000	-75,834724
17109,375000	-75,845764
17156,250000	-75,863037
17203,125000	-75,874771
17250,000000	-75,885872
17296,875000	-75,899750
17343,750000	-75,913872
17390,625000	-75,927834
17437,500000	-75,938293
17484,375000	-75,952446
17531,250000	-75,962532
17578,125000	-75,973213
17625,000000	-75,988701
17671,875000	-76,000191
17718,750000	-76,011101
17765,625000	-76,023590
17812,500000	-76,034126
17859,375000	-76,047607
17906,250000	-76,056358
17953,125000	-76,070885
18000,000000	-76,079689
18046,875000	-76,092163
18093,750000	-76,104752
18140,625000	-76,111588
18187,500000	-76,124069
18234,375000	-76,135704
18281,250000	-76,147476
18328,125000	-76,160042
18375,000000	-76,164871
18421,875000	-76,179832
18468,750000	-76,186554
18515,625000	-76,200027
18562,500000	-76,210396
18609,375000	-76,221992
18656,250000	-76,228790
18703,125000	-76,238007
18750,000000	-76,249702
18796,875000	-76,260269
18843,750000	-76,266396
18890,625000	-76,279121
18937,500000	-76,289978
18984,375000	-76,298454
19031,250000	-76,304176
19078,125000	-76,311790
19125,000000	-76,326439
19171,875000	-76,333755
19218,750000	-76,341072
19265,625000	-76,348419
19312,500000	-76,360100
19359,375000	-76,370087
19406,250000	-76,376328
19453,125000	-76,389572
19500,000000	-76,393799
19546,875000	-76,403183
19593,750000	-76,409264
19640,625000	-76,415154
19687,500000	-76,427803
19734,375000	-76,435394
19781,250000	-76,442429
19828,125000	-76,447220
19875,000000	-76,456886
19921,875000	-76,465462
19968,750000	-76,471092
20015,625000	-76,479134
20062,500000	-76,484932
20109,375000	-76,492325
20156,250000	-76,499573
20203,125000	-76,505112
20250,000000	-76,512115
20296,875000	-76,520683
20343,750000	-76,527260
20390,625000	-76,534424
20437,500000	-76,540886
20484,375000	-76,548920
20531,250000	-76,554199
20578,125000	-76,556007
20625,000000	-76,563377
20671,875000	-76,575691
20718,750000	-76,578850
20765,625000	-76,583374
20812,500000	-76,589554
20859,375000	-76,595146
20906,250000	-76,601700
20953,125000	-76,606689
21000,000000	-76,609451
21046,875000	-76,622932
21093,750000	-76,624413
21140,625000	-76,625313
21187,500000	-76,633652
21234,375000	-76,639160
21281,250000	-76,639862
21328,125000	-76,649345
21375,000000	-76,656425
21421,875000	-76,654411
21468,750000	-76,660622
21515,625000	-76,669373
21562,500000	-76,670570
21609,375000	-76,674477
21656,250000	-76,680557
21703,125000	-76,686867
21750,000000	-76,685997
21796,875000	-76,688591
21843,750000	-76,698120
21890,625000	-76,699905
21937,500000	-76,702248
21984,375000	-76,706818
22031,250000	-76,708443
22078,125000	-76,710548
22125,000000	-76,713760
22171,875000	-76,722458
22218,750000	-76,722946
22265,625000	-76,727165
22312,500000	-76,729729
22359,375000	-76,732536
22406,250000	-76,737755
22453,125000	-76,736954
22500,000000	-76,740456
22546,875000	-76,743813
22593,750000	-76,744034
22640,625000	-76,750412
22687,500000	-76,749229
22734,375000	-76,753716
22781,250000	-76,754700
22828,125000	-76,756279
22875,000000	-76,760818
22921,875000	-76,763283
22968,750000	-76,762177
23015,625000	-76,760521
23062,500000	-76,771332
23109,375000	-76,772369
23156,250000	-76,769997
23203,125000	-76,769943
23250,000000	-76,770782
23296,875000	-76,773056
23343,750000	-76,778999
23390,625000	-76,777016
23437,500000	-76,777542
23484,375000	-76,777985
23531,250000	-76,774658
23578,125000	-76,779160
23625,000000	-76,784523
23671,875000	-76,780434
23718,750000	-76,781837
23765,625000	-76,786484
23812,500000	-76,781479
23859,375000	-76,781898
23906,250000	-76,782547
23953,125000	-76,782494
