Frecuencia (Hz)	Nivel (dB)
46,875000	-45,251499
93,750000	-44,914646
140,625000	-44,655788
187,500000	-44,155491
234,375000	-43,429382
281,250000	-42,936226
328,125000	-41,932457
375,000000	-40,499847
421,875000	-38,483479
468,750000	-34,961075
515,625000	-23,452953
562,500000	-29,114502
609,375000	-24,447376
656,250000	-21,667381
703,125000	-19,183533
750,000000	-25,140425
796,875000	-20,644703
843,750000	-30,951456
890,625000	-18,916042
937,500000	-27,288527
984,375000	-24,322441
1031,250000	-27,034630
1078,125000	-33,572422
1125,000000	-37,374615
1171,875000	-38,395061
1218,750000	-39,230766
1265,625000	-42,148815
1312,500000	-39,630146
1359,375000	-38,326313
1406,250000	-41,373589
1453,125000	-39,280834
1500,000000	-44,709381
1546,875000	-43,429150
1593,750000	-30,338194
1640,625000	-44,294422
1687,500000	-44,329414
1734,375000	-41,081291
1781,250000	-31,657202
1828,125000	-35,423981
1875,000000	-40,883121
1921,875000	-40,931847
1968,750000	-34,447643
2015,625000	-27,525097
2062,500000	-40,373108
2109,375000	-37,585041
2156,250000	-39,905716
2203,125000	-46,082058
2250,000000	-47,537113
2296,875000	-48,195599
2343,750000	-44,268726
2390,625000	-29,952768
2437,500000	-44,683826
2484,375000	-49,105724
2531,250000	-50,106129
2578,125000	-49,234970
2625,000000	-43,211597
2671,875000	-40,189522
2718,750000	-44,757202
2765,625000	-48,592365
2812,500000	-46,478970
2859,375000	-35,936363
2906,250000	-41,224136
2953,125000	-44,192371
3000,000000	-34,950302
3046,875000	-40,391922
3093,750000	-49,683975
3140,625000	-51,604431
3187,500000	-47,363632
3234,375000	-52,978111
3281,250000	-52,768810
3328,125000	-44,888626
3375,000000	-47,778702
3421,875000	-53,995552
3468,750000	-55,461712
3515,625000	-55,891956
3562,500000	-54,526752
3609,375000	-52,875290
3656,250000	-56,475307
3703,125000	-55,172054
3750,000000	-57,251972
3796,875000	-57,506588
3843,750000	-57,472179
3890,625000	-56,814938
3937,500000	-54,269005
3984,375000	-46,631519
4031,250000	-47,482323
4078,125000	-55,348091
4125,000000	-57,937000
4171,875000	-58,325497
4218,750000	-57,663673
4265,625000	-58,414433
4312,500000	-54,419582
4359,375000	-58,981182
4406,250000	-59,111851
4453,125000	-57,663101
4500,000000	-49,111279
4546,875000	-54,242363
4593,750000	-59,161263
4640,625000	-59,579411
4687,500000	-57,585434
4734,375000	-59,270519
4781,250000	-55,088943
4828,125000	-58,267467
4875,000000	-59,929840
4921,875000	-59,428558
4968,750000	-56,558407
5015,625000	-52,140194
5062,500000	-54,267143
5109,375000	-59,064919
5156,250000	-59,857597
5203,125000	-60,500256
5250,000000	-60,458485
5296,875000	-57,771626
5343,750000	-53,147247
5390,625000	-51,251629
5437,500000	-52,431004
5484,375000	-59,020962
5531,250000	-59,346752
5578,125000	-55,541996
5625,000000	-58,433163
5671,875000	-59,645901
5718,750000	-56,482792
5765,625000	-52,449059
5812,500000	-59,614513
5859,375000	-60,775005
5906,250000	-60,988319
5953,125000	-59,858627
6000,000000	-56,867798
6046,875000	-56,564724
6093,750000	-59,796501
6140,625000	-61,700809
6187,500000	-62,037987
6234,375000	-61,452450
6281,250000	-59,676525
6328,125000	-58,898884
6375,000000	-60,460125
6421,875000	-61,909824
6468,750000	-62,026077
6515,625000	-62,442112
6562,500000	-63,006432
6609,375000	-62,806664
6656,250000	-61,740715
6703,125000	-57,931271
6750,000000	-62,539742
6796,875000	-63,732700
6843,750000	-63,908691
6890,625000	-63,706444
6937,500000	-64,109627
6984,375000	-64,028008
7031,250000	-63,969612
7078,125000	-64,055222
7125,000000	-63,656715
7171,875000	-60,864483
7218,750000	-60,868191
7265,625000	-62,745930
7312,500000	-63,792801
7359,375000	-64,142441
7406,250000	-64,455826
7453,125000	-64,766029
7500,000000	-64,842339
7546,875000	-64,939552
7593,750000	-65,010590
7640,625000	-65,048027
7687,500000	-65,110008
7734,375000	-65,150299
7781,250000	-65,139160
7828,125000	-65,133766
7875,000000	-64,632088
7921,875000	-63,714188
7968,750000	-64,221924
8015,625000	-63,892017
8062,500000	-64,904297
8109,375000	-65,167099
8156,250000	-65,577316
8203,125000	-65,627365
8250,000000	-65,795189
8296,875000	-65,824409
8343,750000	-65,846405
8390,625000	-65,772964
8437,500000	-65,958023
8484,375000	-65,990257
8531,250000	-66,054077
8578,125000	-66,067574
8625,000000	-66,090652
8671,875000	-66,217293
8718,750000	-66,229187
8765,625000	-66,277672
8812,500000	-66,333473
8859,375000	-66,374504
8906,250000	-66,398254
8953,125000	-66,352669
9000,000000	-66,248032
9046,875000	-65,971191
9093,750000	-66,299385
9140,625000	-66,610535
9187,500000	-66,667580
9234,375000	-66,719902
9281,250000	-66,747932
9328,125000	-66,766998
9375,000000	-66,824043
9421,875000	-66,864487
9468,750000	-66,916801
9515,625000	-66,946762
9562,500000	-66,986023
9609,375000	-67,022942
9656,250000	-67,064819
9703,125000	-67,103668
9750,000000	-67,141861
9796,875000	-67,173180
9843,750000	-67,209251
9890,625000	-67,247604
9937,500000	-67,269028
9984,375000	-67,297295
10031,250000	-67,363991
10078,125000	-67,366066
10125,000000	-67,439369
10171,875000	-67,456345
10218,750000	-67,501404
10265,625000	-67,540123
10312,500000	-67,570557
10359,375000	-67,605591
10406,250000	-67,638123
10453,125000	-67,675377
10500,000000	-67,705437
10546,875000	-67,739914
10593,750000	-67,775414
10640,625000	-67,809021
10687,500000	-67,837624
10734,375000	-67,879814
10781,250000	-67,901184
10828,125000	-67,929298
10875,000000	-67,965660
10921,875000	-67,995323
10968,750000	-68,029716
11015,625000	-68,082649
11062,500000	-68,094322
11109,375000	-68,122948
11156,250000	-68,145004
11203,125000	-68,187241
11250,000000	-68,224342
11296,875000	-68,247360
11343,750000	-68,278008
11390,625000	-68,303490
11437,500000	-68,339645
11484,375000	-68,359245
11531,250000	-68,394875
11578,125000	-68,430611
11625,000000	-68,455429
11671,875000	-68,478622
11718,750000	-68,504646
11765,625000	-68,534813
11812,500000	-68,564056
11859,375000	-68,589859
11906,250000	-68,615822
11953,125000	-68,641968
12000,000000	-68,679916
12046,875000	-68,700333
12093,750000	-68,725990
12140,625000	-68,760681
12187,500000	-68,782463
12234,375000	-68,803780
12281,250000	-68,834229
12328,125000	-68,868469
12375,000000	-68,885262
12421,875000	-68,919319
12468,750000	-68,938187
12515,625000	-68,964508
12562,500000	-68,993988
12609,375000	-69,018654
12656,250000	-69,037628
12703,125000	-69,061462
12750,000000	-69,102348
12796,875000	-69,115318
12843,750000	-69,139030
12890,625000	-69,170685
12937,500000	-69,193619
12984,375000	-69,217552
13031,250000	-69,245010
13078,125000	-69,256798
13125,000000	-69,292633
13171,875000	-69,315315
13218,750000	-69,325729
13265,625000	-69,356377
13312,500000	-69,386093
13359,375000	-69,402992
13406,250000	-69,432846
13453,125000	-69,454079
13500,000000	-69,472748
13546,875000	-69,492966
13593,750000	-69,505638
13640,625000	-69,529442
13687,500000	-69,554306
13734,375000	-69,580734
13781,250000	-69,599831
13828,125000	-69,621880
13875,000000	-69,637741
13921,875000	-69,653305
13968,750000	-69,693237
14015,625000	-69,705696
14062,500000	-69,729515
14109,375000	-69,747696
14156,250000	-69,769920
14203,125000	-69,788010
14250,000000	-69,809074
14296,875000	-69,818954
14343,750000	-69,842102
14390,625000	-69,862549
14437,500000	-69,894173
14484,375000	-69,904442
14531,250000	-69,928650
14578,125000	-69,935875
14625,000000	-69,962723
14671,875000	-69,974785
14718,750000	-70,006714
14765,625000	-70,014061
14812,500000	-70,044159
14859,375000	-70,060226
14906,250000	-70,085632
14953,125000	-70,097878
15000,000000	-70,124069
15046,875000	-70,135513
15093,750000	-70,156235
15140,625000	-70,169235
15187,500000	-70,190811
15234,375000	-70,193153
15281,250000	-70,226540
15328,125000	-70,227737
15375,000000	-70,252441
15421,875000	-70,265060
15468,750000	-70,299210
15515,625000	-70,302528
15562,500000	-70,330994
15609,375000	-70,338547
15656,250000	-70,360092
15703,125000	-70,372574
15750,000000	-70,395561
15796,875000	-70,400780
15843,750000	-70,425499
15890,625000	-70,440239
15937,500000	-70,455627
15984,375000	-70,463379
16031,250000	-70,476456
16078,125000	-70,499580
16125,000000	-70,516800
16171,875000	-70,531158
16218,750000	-70,547195
16265,625000	-70,562088
16312,500000	-70,578384
16359,375000	-70,592430
16406,250000	-70,607307
16453,125000	-70,622810
16500,000000	-70,637009
16546,875000	-70,651962
16593,750000	-70,665916
16640,625000	-70,680939
16687,500000	-70,693611
16734,375000	-70,708496
16781,250000	-70,722786
16828,125000	-70,737709
16875,000000	-70,749397
16921,875000	-70,763145
16968,750000	-70,775711
17015,625000	-70,789345
17062,500000	-70,803589
17109,375000	-70,817673
17156,250000	-70,829063
17203,125000	-70,841179
17250,000000	-70,854836
17296,875000	-70,869812
17343,750000	-70,880150
17390,625000	-70,894135
17437,500000	-70,905327
17484,375000	-70,917473
17531,250000	-70,929909
17578,125000	-70,941261
17625,000000	-70,953529
17671,875000	-70,968758
17718,750000	-70,977959
17765,625000	-70,990837
17812,500000	-71,002182
17859,375000	-71,013260
17906,250000	-71,026123
17953,125000	-71,036987
18000,000000	-71,046448
18046,875000	-71,060532
18093,750000	-71,069664
18140,625000	-71,082169
18187,500000	-71,091393
18234,375000	-71,102402
18281,250000	-71,112122
18328,125000	-71,123772
18375,000000	-71,134575
18421,875000	-71,144455
18468,750000	-71,153885
18515,625000	-71,165108
18562,500000	-71,175156
18609,375000	-71,184174
18656,250000	-71,194687
18703,125000	-71,205620
18750,000000	-71,213173
18796,875000	-71,225090
18843,750000	-71,233284
18890,625000	-71,242470
18937,500000	-71,252510
18984,375000	-71,262367
19031,250000	-71,270378
19078,125000	-71,279892
19125,000000	-71,289406
19171,875000	-71,297287
19218,750000	-71,307030
19265,625000	-71,314354
19312,500000	-71,323097
19359,375000	-71,332336
19406,250000	-71,340508
19453,125000	-71,348816
19500,000000	-71,356285
19546,875000	-71,364304
19593,750000	-71,373459
19640,625000	-71,381409
19687,500000	-71,389999
19734,375000	-71,397095
19781,250000	-71,404854
19828,125000	-71,413231
19875,000000	-71,418694
19921,875000	-71,426003
19968,750000	-71,435852
20015,625000	-71,441833
20062,500000	-71,450310
20109,375000	-71,455070
20156,250000	-71,461769
20203,125000	-71,472092
20250,000000	-71,477554
20296,875000	-71,483368
20343,750000	-71,490410
20390,625000	-71,495972
20437,500000	-71,503006
20484,375000	-71,508568
20531,250000	-71,515907
20578,125000	-71,520531
20625,000000	-71,527428
20671,875000	-71,533669
20718,750000	-71,540810
20765,625000	-71,546082
20812,500000	-71,551476
20859,375000	-71,557472
20906,250000	-71,562981
20953,125000	-71,568237
21000,000000	-71,574173
21046,875000	-71,577362
21093,750000	-71,584213
21140,625000	-71,589508
21187,500000	-71,593918
21234,375000	-71,599106
21281,250000	-71,604027
21328,125000	-71,610100
21375,000000	-71,614845
21421,875000	-71,619278
21468,750000	-71,622322
21515,625000	-71,626312
21562,500000	-71,632416
21609,375000	-71,636528
21656,250000	-71,640862
21703,125000	-71,643456
21750,000000	-71,648407
21796,875000	-71,652168
21843,750000	-71,655960
21890,625000	-71,658806
21937,500000	-71,662605
21984,375000	-71,667206
22031,250000	-71,671753
22078,125000	-71,674911
22125,000000	-71,676193
22171,875000	-71,682053
22218,750000	-71,685905
22265,625000	-71,685966
22312,500000	-71,689621
22359,375000	-71,693405
22406,250000	-71,696365
22453,125000	-71,697639
22500,000000	-71,702103
22546,875000	-71,703423
22593,750000	-71,707062
22640,625000	-71,707344
22687,500000	-71,711853
22734,375000	-71,711967
22781,250000	-71,716888
22828,125000	-71,719467
22875,000000	-71,720184
22921,875000	-71,722107
22968,750000	-71,724037
23015,625000	-71,725876
23062,500000	-71,727562
23109,375000	-71,730240
23156,250000	-71,730980
23203,125000	-71,730453
23250,000000	-71,733063
23296,875000	-71,735931
23343,750000	-71,736328
23390,625000	-71,737785
23437,500000	-71,738823
23484,375000	-71,739326
23531,250000	-71,739876
23578,125000	-71,740311
23625,000000	-71,742149
23671,875000	-71,742096
23718,750000	-71,742081
23765,625000	-71,742706
23812,500000	-71,742630
23859,375000	-71,744064
23906,250000	-71,742203
23953,125000	-71,745186
